SpectraSuite Data File
++++++++++++++++++++++++++++++++++++
Date: Wed Jul 25 10:38:40 HST 2007
User: guest
Dark Spectrum Present: Yes
Reference Spectrum Present: No
Number of Sampled Component Spectra: 1
Spectrometers: USB4E01242
Integration Time (usec): 100000 (USB4E01242)
Spectra Averaged: 1 (USB4E01242)
Boxcar Smoothing: 10 (USB4E01242)
Correct for Electrical Dark: No (USB4E01242)
Strobe/Lamp Enabled: No (USB4E01242)
Correct for Detector Non-linearity: No (USB4E01242)
Correct for Stray Light: No (USB4E01242)
Number of Pixels in Processed Spectrum: 3648
>>>>>Begin Processed Spectral Data<<<<<	
177.33	0
177.55	0
177.77	0
177.99	0
178.21	0
178.43	0
178.64	0
178.86	0
179.08	0
179.3	0
179.52	0
179.74	0
179.96	0
180.18	0
180.39	0
180.61	0
180.83	0
181.05	0
181.27	0
181.49	0
181.71	0
181.92	0
182.14	0
182.36	0
182.58	0
182.8	0
183.02	0
183.23	0
183.45	0
183.67	0
183.89	0
184.11	0
184.33	0
184.55	0
184.76	0
184.98	0
185.2	0
185.42	0
185.64	0
185.86	0
186.07	0
186.29	0
186.51	0
186.73	0
186.95	0
187.17	0
187.38	0
187.6	0
187.82	0
188.04	0
188.26	0
188.47	0
188.69	0
188.91	0
189.13	0
189.35	0
189.57	0
189.78	0
190	0
190.22	0
190.44	0
190.66	0
190.87	0
191.09	0
191.31	0
191.53	0
191.75	0
191.97	0
192.18	0
192.4	0
192.62	0
192.84	0
193.06	0
193.27	0
193.49	0
193.71	0
193.93	0
194.15	0
194.36	0
194.58	0
194.8	0
195.02	0
195.23	0
195.45	0
195.67	0
195.89	0
196.11	0
196.32	0
196.54	0
196.76	0
196.98	0
197.2	0
197.41	0
197.63	0
197.85	0
198.07	0
198.28	0
198.5	0
198.72	0
198.94	0
199.16	0
199.37	0
199.59	0
199.81	0
200.03	0
200.24	0
200.46	0
200.68	0
200.9	0
201.11	0
201.33	0
201.55	0
201.77	0
201.98	0
202.2	0
202.42	0
202.64	0
202.86	0
203.07	0
203.29	0
203.51	0
203.73	0
203.94	0
204.16	0
204.38	0
204.6	0
204.81	0
205.03	0
205.25	0
205.46	0
205.68	0
205.9	0
206.12	0
206.33	0
206.55	0
206.77	0
206.99	0
207.2	0
207.42	0
207.64	0
207.86	0
208.07	0
208.29	0
208.51	0
208.72	0
208.94	0
209.16	0
209.38	0
209.59	0
209.81	0
210.03	0
210.25	0
210.46	0
210.68	0
210.9	0
211.11	0
211.33	0
211.55	0
211.77	0
211.98	0
212.2	0
212.42	0
212.63	0
212.85	0
213.07	0
213.29	0
213.5	0
213.72	0
213.94	0
214.15	0
214.37	0
214.59	0
214.8	0
215.02	0
215.24	0
215.45	0
215.67	0
215.89	0
216.11	0
216.32	0
216.54	0
216.76	0
216.97	0
217.19	0
217.41	0
217.62	0
217.84	0
218.06	0
218.27	0
218.49	0
218.71	0
218.92	0
219.14	0
219.36	0
219.57	0
219.79	0
220.01	0
220.22	0
220.44	0
220.66	0
220.88	0
221.09	0
221.31	0
221.53	0
221.74	0
221.96	0
222.17	0
222.39	0
222.61	0
222.82	0
223.04	0
223.26	0
223.47	0
223.69	0
223.91	0
224.12	0
224.34	0
224.56	0
224.77	0
224.99	0
225.21	0
225.42	0
225.64	0
225.86	0
226.07	0
226.29	0
226.5	0
226.72	0
226.94	0
227.15	0
227.37	0
227.59	0
227.8	0
228.02	0
228.24	0
228.45	0
228.67	0
228.88	0
229.1	0
229.32	0
229.53	0
229.75	0
229.97	0
230.18	0
230.4	0
230.61	0
230.83	0
231.05	0
231.26	0
231.48	0
231.7	0
231.91	0
232.13	0
232.34	0
232.56	0
232.78	0
232.99	0
233.21	0
233.42	0
233.64	0
233.86	0
234.07	0
234.29	0
234.5	0
234.72	0
234.94	0
235.15	0
235.37	0
235.58	0
235.8	0
236.02	0
236.23	0
236.45	0
236.66	0
236.88	0
237.1	0
237.31	0
237.53	0
237.74	0
237.96	0
238.17	0
238.39	0
238.61	0
238.82	0
239.04	0
239.25	0
239.47	0
239.69	0
239.9	0
240.12	0
240.33	0
240.55	0
240.76	0
240.98	0
241.2	0
241.41	0
241.63	0
241.84	0
242.06	0
242.27	0
242.49	0
242.7	0
242.92	0
243.14	0
243.35	0
243.57	0
243.78	0
244	0
244.21	0
244.43	0
244.64	0
244.86	0
245.08	0
245.29	0
245.51	0
245.72	0
245.94	0
246.15	0
246.37	0
246.58	0
246.8	0
247.01	0
247.23	0
247.45	0
247.66	0
247.88	0
248.09	0
248.31	0
248.52	0
248.74	0
248.95	0
249.17	0
249.38	0
249.6	0
249.81	0
250.03	0
250.24	0
250.46	0
250.67	0
250.89	0
251.1	0
251.32	0
251.53	0
251.75	0
251.97	0
252.18	0
252.4	0
252.61	0
252.83	0
253.04	0
253.26	0
253.47	0
253.69	0
253.9	0
254.12	0
254.33	0
254.55	0
254.76	0
254.98	0
255.19	0
255.41	0
255.62	0
255.84	0
256.05	0
256.27	0
256.48	0
256.7	0
256.91	0
257.13	0
257.34	0
257.55	0
257.77	0
257.98	0
258.2	0
258.41	0
258.63	0
258.84	0
259.06	0
259.27	0
259.49	0
259.7	0
259.92	0
260.13	0
260.35	0
260.56	0
260.78	0
260.99	0
261.21	0
261.42	0
261.63	0
261.85	0
262.06	0
262.28	0
262.49	0
262.71	0
262.92	0
263.14	0
263.35	0
263.57	0
263.78	0
264	0
264.21	0
264.42	0
264.64	0
264.85	0
265.07	0
265.28	0
265.5	0
265.71	0
265.93	0
266.14	0
266.35	0
266.57	0
266.78	0
267	0
267.21	0
267.43	0
267.64	0
267.85	0
268.07	0
268.28	0
268.5	0
268.71	0
268.93	0
269.14	0
269.35	0
269.57	0
269.78	0
270	0
270.21	0
270.43	0
270.64	0
270.85	0
271.07	0
271.28	0
271.5	0
271.71	0
271.92	0
272.14	0
272.35	0
272.57	0
272.78	0
272.99	0
273.21	0
273.42	0
273.64	0
273.85	0
274.07	0
274.28	0
274.49	0
274.71	0
274.92	0
275.13	0
275.35	0
275.56	0
275.78	0
275.99	0
276.2	0
276.42	0
276.63	0
276.85	0
277.06	0
277.27	0
277.49	0
277.7	0
277.92	0
278.13	0
278.34	0
278.56	0
278.77	0
278.98	0
279.2	0
279.41	0
279.63	0
279.84	0
280.05	0
280.27	0
280.48	0
280.69	0
280.91	0
281.12	0
281.33	0
281.55	0
281.76	0
281.98	0
282.19	0
282.4	0
282.62	0
282.83	0
283.04	0
283.26	0
283.47	0
283.68	0
283.9	0
284.11	0
284.32	0
284.54	0
284.75	0
284.96	0
285.18	0
285.39	0
285.6	0
285.82	0
286.03	0
286.24	0
286.46	0
286.67	0
286.88	0
287.1	0
287.31	0
287.52	0
287.74	0
287.95	0
288.16	0
288.38	0
288.59	0
288.8	0
289.02	0
289.23	0
289.44	0
289.66	0
289.87	0
290.08	0
290.3	0
290.51	0
290.72	0
290.94	0
291.15	0
291.36	0
291.57	0
291.79	0
292	0
292.21	0
292.43	0
292.64	0
292.85	0
293.07	0
293.28	0
293.49	0
293.7	0
293.92	0
294.13	0
294.34	0
294.56	0
294.77	0
294.98	0
295.2	0
295.41	0
295.62	0
295.83	0
296.05	0
296.26	0
296.47	0
296.69	0
296.9	0
297.11	0
297.32	0
297.54	0
297.75	0
297.96	0
298.17	0
298.39	0
298.6	0
298.81	0
299.03	0
299.24	0
299.45	0
299.66	0
299.88	0
300.09	-0.015888
300.3	-0.020017
300.51	-0.010064
300.73	-0.020203
300.94	-0.015621
301.15	-0.012253
301.36	-0.021392
301.58	-0.017838
301.79	-0.0023045
302	-0.015477
302.21	-0.017268
302.43	-0.0090743
302.64	-0.0179
302.85	-0.0094501
303.06	-0.020932
303.28	-0.010716
303.49	-0.018263
303.7	-0.0049768
303.91	-0.016134
304.13	-0.018942
304.34	-0.013989
304.55	-0.0043602
304.76	-0.020768
304.98	-0.016994
305.19	-0.0071097
305.4	-0.019564
305.61	-0.0099028
305.82	-0.016321
306.04	-0.0083442
306.25	-0.019832
306.46	-0.0058335
306.67	-0.017311
306.89	-0.01537
307.1	-0.0087323
307.31	-0.0099827
307.52	-0.012923
307.74	-0.0046645
307.95	-0.0046826
308.16	-0.02139
308.37	-0.010396
308.58	-0.01276
308.8	-0.0062203
309.01	-0.0092199
309.22	-0.020403
309.43	-0.01602
309.64	-0.0076336
309.86	-0.0011537
310.07	-0.010523
310.28	-0.0072887
310.49	-0.0062047
310.7	-0.015352
310.92	-0.0055093
311.13	-0.011196
311.34	-0.0091133
311.55	-0.0078871
311.76	-0.0095223
311.98	0.0020115
312.19	-0.010444
312.4	-0.016181
312.61	-0.013771
312.82	-0.0084732
313.04	-0.016913
313.25	-0.0080996
313.46	-0.015047
313.67	-0.0144
313.88	-0.01216
314.1	-0.015419
314.31	-0.015369
314.52	-0.015533
314.73	-0.013445
314.94	-0.0063008
315.16	-0.0044635
315.37	0.0029026
315.58	-0.012983
315.79	-0.0050633
316	-0.0021313
316.21	0.0027588
316.43	-0.013815
316.64	-0.0081984
316.85	-0.010566
317.06	-0.0015961
317.27	0.0035159
317.48	-0.0060686
317.7	-0.0035772
317.91	-0.0054437
318.12	0.0036333
318.33	-0.0074708
318.54	-0.004584
318.75	-0.001755
318.97	0.0063663
319.18	-0.0014569
319.39	-0.0038914
319.6	-0.0032228
319.81	0.0024247
320.02	-0.0059672
320.24	-0.0063536
320.45	-0.0015004
320.66	-0.012076
320.87	-0.0039432
321.08	0.003279
321.29	0.0026312
321.5	-0.0056381
321.72	-0.0071867
321.93	0.0072589
322.14	-0.0018476
322.35	0.0077108
322.56	0.0085911
322.77	0.011645
322.98	0.0011884
323.2	0.010699
323.41	-0.003761
323.62	-0.0048802
323.83	0.0036041
324.04	-0.0037878
324.25	-0.0038563
324.46	0.0018524
324.67	0.0045111
324.89	0.001346
325.1	-0.00067549
325.31	0.012247
325.52	0.0063048
325.73	-0.0010915
325.94	0.0018154
326.15	-0.0072581
326.36	0.0097598
326.58	0.013127
326.79	0.011025
327	-0.010528
327.21	0.0092076
327.42	0.0072686
327.63	0.00735
327.84	0.0040022
328.05	0.012996
328.26	-0.0060986
328.48	0.00689
328.69	0.011587
328.9	0.0054217
329.11	0.0051196
329.32	0.0057218
329.53	-0.00039145
329.74	0.0047796
329.95	0.012324
330.16	0.0084051
330.37	0.0030955
330.59	0.021674
330.8	0.010471
331.01	0.011623
331.22	0.010609
331.43	0.0019901
331.64	0.0013042
331.85	0.017802
332.06	0.015229
332.27	0.0020147
332.48	0.013184
332.69	0.018202
332.91	0.011197
333.12	0.0098143
333.33	0.024673
333.54	0.003819
333.75	-0.00032206
333.96	0.0043982
334.17	0.0020956
334.38	0.0041355
334.59	0.011916
334.8	0.013702
335.01	0.011676
335.22	0.0065823
335.43	0.0050069
335.64	0.0076267
335.86	0.011502
336.07	0.011072
336.28	-0.0013626
336.49	0.013004
336.7	0.0037598
336.91	0.0049703
337.12	0.0024438
337.33	0.018238
337.54	0.0079458
337.75	0.0050354
337.96	0.015399
338.17	0.014285
338.38	0.0031198
338.59	0.017063
338.8	0.00062833
339.01	0.01817
339.22	0.016102
339.43	0.017526
339.65	0.010702
339.86	0.0050112
340.07	0.0046201
340.28	0.013096
340.49	0.012352
340.7	0.014853
340.91	0.0051267
341.12	0.0013726
341.33	0.011014
341.54	0.015449
341.75	0.0065523
341.96	0.0097399
342.17	0.013635
342.38	0.0085004
342.59	0.011802
342.8	0.0039115
343.01	0.010421
343.22	0.0092225
343.43	0.0065234
343.64	0.0037085
343.85	0.011903
344.06	-0.0010312
344.27	0.010406
344.48	0.018975
344.69	0.011597
344.9	0.01461
345.11	0.00957
345.32	0.0077436
345.53	-0.0016917
345.74	0.015646
345.95	0.0034139
346.16	0.011303
346.37	0.011054
346.58	0.010495
346.79	0.0035249
347	0.014835
347.21	0.016092
347.42	0.0075575
347.63	0.0018704
347.84	0.011668
348.05	0.01631
348.26	0.010314
348.47	0.013522
348.68	0.012241
348.89	0.0009065
349.1	0.0089771
349.31	0.011544
349.52	0.0061476
349.73	0.0093654
349.94	0.010141
350.15	0.0029354
350.36	0.017985
350.57	0.014501
350.78	0.015985
350.99	0.015274
351.2	0.0086823
351.41	0.014298
351.62	0.0091768
351.83	0.010079
352.04	0.0092581
352.25	0.015415
352.46	0.01071
352.67	0.0067445
352.88	0.020453
353.09	-0.0010007
353.3	0.0096706
353.51	0.011145
353.72	0.019292
353.93	0.0099307
354.14	0.0053096
354.35	0.019179
354.56	0.010093
354.77	0.023127
354.98	0.002596
355.19	0.0093114
355.39	0.01166
355.6	0.0092183
355.81	0.014296
356.02	0.017174
356.23	0.0049177
356.44	0.0024657
356.65	0.015506
356.86	0.0080689
357.07	0.0062257
357.28	0.0146
357.49	0.010025
357.7	0.013697
357.91	0.0032402
358.12	0.0030521
358.33	0.011286
358.54	0.013721
358.75	0.008143
358.96	0.013926
359.16	-0.00013757
359.37	0.016997
359.58	0.011679
359.79	0.008183
360	0.0090267
360.21	0.0099612
360.42	0.007767
360.63	0.027377
360.84	0.017503
361.05	0.0016317
361.26	0.011787
361.47	0.020733
361.68	0.011758
361.88	0.017059
362.09	0.010534
362.3	0.016544
362.51	0.013173
362.72	0.024545
362.93	0.014071
363.14	0.016267
363.35	0.013481
363.56	0.011855
363.77	0.023389
363.98	0.019126
364.18	0.025797
364.39	0.022875
364.6	0.017434
364.81	0.019681
365.02	0.02132
365.23	0.022787
365.44	0.022745
365.65	0.02057
365.86	0.0097614
366.07	0.026992
366.27	0.019336
366.48	0.023128
366.69	0.019679
366.9	0.026218
367.11	0.022976
367.32	0.024608
367.53	0.018307
367.74	0.014716
367.95	0.014933
368.15	0.018641
368.36	0.023659
368.57	0.010242
368.78	0.028847
368.99	0.016921
369.2	0.01551
369.41	0.02206
369.62	0.018188
369.82	0.027369
370.03	0.018853
370.24	0.022701
370.45	0.01834
370.66	0.013139
370.87	0.013737
371.08	0.016234
371.28	0.016567
371.49	0.017147
371.7	0.016295
371.91	0.017402
372.12	0.011647
372.33	0.012047
372.54	0.017427
372.74	0.01665
372.95	0.0059754
373.16	0.020118
373.37	0.02264
373.58	0.0078019
373.79	0.020622
374	0.016359
374.2	0.026811
374.41	0.024722
374.62	0.017812
374.83	0.017234
375.04	0.019183
375.25	0.020273
375.45	0.0049977
375.66	0.021957
375.87	0.020577
376.08	0.025109
376.29	0.023578
376.5	0.021875
376.7	0.019598
376.91	0.025534
377.12	0.026004
377.33	0.014073
377.54	0.016835
377.75	0.025447
377.95	0.019044
378.16	0.021777
378.37	0.015455
378.58	0.024893
378.79	0.011037
379	0.026454
379.2	0.01695
379.41	0.021773
379.62	0.024647
379.83	0.01906
380.04	0.02132
380.24	0.016735
380.45	0.010083
380.66	0.012463
380.87	0.016997
381.08	0.01843
381.28	0.010024
381.49	0.016457
381.7	0.0090682
381.91	0.011675
382.12	0.016134
382.32	0.0094649
382.53	0.015217
382.74	0.0065912
382.95	0.010333
383.16	0.013485
383.36	0.0011021
383.57	0.012273
383.78	0.016081
383.99	0.0074475
384.2	0.010108
384.4	0.010846
384.61	0.017442
384.82	0.019646
385.03	0.013505
385.23	0.015866
385.44	0.015879
385.65	0.019491
385.86	0.01035
386.07	0.027178
386.27	0.0062968
386.48	0.0145
386.69	0.020094
386.9	0.0019507
387.1	0.012531
387.31	0.019745
387.52	0.012457
387.73	0.017033
387.94	0.022098
388.14	0.0087807
388.35	0.013873
388.56	0.029754
388.77	0.021556
388.97	0.021922
389.18	0.027765
389.39	0.017903
389.6	0.020825
389.8	0.028601
390.01	0.025166
390.22	0.024782
390.43	0.014602
390.63	0.018598
390.84	0.018131
391.05	0.030077
391.26	0.019966
391.46	0.018359
391.67	0.018568
391.88	0.010037
392.09	0.00986
392.29	0.021212
392.5	0.013598
392.71	0.017606
392.92	0.019819
393.12	0.01833
393.33	0.022912
393.54	0.015406
393.74	0.010367
393.95	0.013746
394.16	0.021734
394.37	0.015404
394.57	0.015758
394.78	0.020887
394.99	0.016324
395.19	0.01502
395.4	0.013984
395.61	0.013441
395.82	0.021577
396.02	0.014925
396.23	0.020817
396.44	0.021839
396.65	0.017061
396.85	0.02462
397.06	0.021001
397.27	0.024267
397.47	0.028827
397.68	0.023691
397.89	0.020307
398.09	0.017942
398.3	0.024804
398.51	0.018309
398.72	0.024495
398.92	0.031673
399.13	0.032196
399.34	0.037041
399.54	0.037555
399.75	0.033967
399.96	0.02709
400.16	0.026736
400.37	0.034906
400.58	0.033379
400.78	0.035938
400.99	0.032036
401.2	0.039388
401.41	0.036536
401.61	0.029288
401.82	0.035575
402.03	0.029807
402.23	0.029355
402.44	0.038271
402.65	0.03301
402.85	0.034404
403.06	0.034998
403.27	0.037665
403.47	0.035718
403.68	0.030921
403.89	0.037655
404.09	0.03249
404.3	0.026984
404.51	0.037751
404.71	0.036559
404.92	0.042042
405.13	0.025118
405.33	0.030727
405.54	0.032036
405.75	0.034405
405.95	0.032783
406.16	0.022969
406.37	0.03314
406.57	0.033551
406.78	0.036276
406.99	0.034359
407.19	0.0375
407.4	0.041454
407.6	0.038066
407.81	0.03649
408.02	0.029572
408.22	0.031547
408.43	0.039122
408.64	0.036195
408.84	0.034771
409.05	0.026658
409.26	0.038271
409.46	0.040784
409.67	0.032777
409.87	0.037138
410.08	0.034756
410.29	0.04313
410.49	0.027874
410.7	0.038033
410.91	0.034945
411.11	0.040923
411.32	0.037089
411.52	0.029007
411.73	0.040772
411.94	0.039087
412.14	0.041921
412.35	0.035927
412.56	0.042396
412.76	0.04172
412.97	0.035946
413.17	0.039507
413.38	0.044476
413.59	0.034762
413.79	0.037346
414	0.0407
414.2	0.04322
414.41	0.033318
414.62	0.040629
414.82	0.036193
415.03	0.030991
415.23	0.041351
415.44	0.033211
415.65	0.039911
415.85	0.032998
416.06	0.04163
416.26	0.038984
416.47	0.0404
416.68	0.044553
416.88	0.046905
417.09	0.028272
417.29	0.038879
417.5	0.042547
417.71	0.04047
417.91	0.038213
418.12	0.037374
418.32	0.04467
418.53	0.043715
418.73	0.037259
418.94	0.037905
419.15	0.036411
419.35	0.047058
419.56	0.041317
419.76	0.03266
419.97	0.046839
420.17	0.041396
420.38	0.029299
420.59	0.04372
420.79	0.044678
421	0.037973
421.2	0.028834
421.41	0.036733
421.61	0.033698
421.82	0.038279
422.02	0.035895
422.23	0.024332
422.44	0.043066
422.64	0.033199
422.85	0.035433
423.05	0.036391
423.26	0.038073
423.46	0.03632
423.67	0.033586
423.87	0.034415
424.08	0.032174
424.29	0.032203
424.49	0.039604
424.7	0.028775
424.9	0.038366
425.11	0.038904
425.31	0.036869
425.52	0.040566
425.72	0.033336
425.93	0.036294
426.13	0.032091
426.34	0.033708
426.54	0.034065
426.75	0.035471
426.95	0.035902
427.16	0.036815
427.36	0.035683
427.57	0.030924
427.78	0.030063
427.98	0.030508
428.19	0.032529
428.39	0.027627
428.6	0.028971
428.8	0.0305
429.01	0.034451
429.21	0.023396
429.42	0.039029
429.62	0.036633
429.83	0.031658
430.03	0.02578
430.24	0.035479
430.44	0.027274
430.65	0.033137
430.85	0.034161
431.06	0.028001
431.26	0.036116
431.47	0.02524
431.67	0.041167
431.88	0.036053
432.08	0.03771
432.29	0.037321
432.49	0.031454
432.7	0.031336
432.9	0.041026
433.11	0.038733
433.31	0.02585
433.52	0.035217
433.72	0.031832
433.93	0.035719
434.13	0.034715
434.34	0.044383
434.54	0.03291
434.74	0.035932
434.95	0.038019
435.15	0.035023
435.36	0.037784
435.56	0.032714
435.77	0.039632
435.97	0.032235
436.18	0.049854
436.38	0.041501
436.59	0.037564
436.79	0.044925
437	0.042955
437.2	0.039741
437.41	0.038499
437.61	0.042109
437.81	0.041001
438.02	0.040232
438.22	0.04327
438.43	0.035089
438.63	0.047976
438.84	0.038438
439.04	0.039524
439.25	0.041447
439.45	0.036359
439.66	0.0375
439.86	0.038892
440.06	0.048824
440.27	0.039584
440.47	0.034837
440.68	0.046142
440.88	0.041411
441.09	0.046716
441.29	0.045203
441.49	0.043903
441.7	0.049855
441.9	0.045457
442.11	0.048516
442.31	0.052413
442.52	0.044962
442.72	0.044541
442.92	0.03864
443.13	0.047676
443.33	0.036403
443.54	0.044353
443.74	0.043174
443.95	0.048843
444.15	0.044902
444.35	0.049324
444.56	0.043177
444.76	0.039055
444.97	0.05294
445.17	0.047807
445.37	0.055487
445.58	0.04345
445.78	0.046385
445.99	0.039777
446.19	0.040075
446.39	0.041796
446.6	0.037393
446.8	0.03842
447.01	0.046674
447.21	0.052153
447.41	0.042344
447.62	0.050572
447.82	0.046934
448.03	0.049813
448.23	0.048836
448.43	0.049997
448.64	0.052141
448.84	0.05112
449.05	0.047669
449.25	0.052255
449.45	0.046449
449.66	0.048547
449.86	0.049852
450.07	0.044116
450.27	0.049278
450.47	0.046385
450.68	0.049454
450.88	0.046198
451.08	0.048601
451.29	0.050937
451.49	0.051124
451.7	0.049226
451.9	0.051643
452.1	0.050406
452.31	0.042979
452.51	0.051356
452.71	0.049191
452.92	0.047329
453.12	0.052399
453.32	0.047475
453.53	0.038152
453.73	0.039412
453.93	0.040511
454.14	0.051137
454.34	0.048818
454.55	0.05159
454.75	0.049098
454.95	0.044098
455.16	0.054851
455.36	0.046373
455.56	0.056687
455.77	0.053776
455.97	0.050422
456.17	0.046858
456.38	0.050733
456.58	0.056248
456.78	0.048454
456.99	0.042399
457.19	0.048294
457.39	0.048175
457.6	0.051138
457.8	0.049444
458	0.04771
458.21	0.054402
458.41	0.053199
458.61	0.04867
458.82	0.047544
459.02	0.044597
459.22	0.056631
459.43	0.053098
459.63	0.050044
459.83	0.046111
460.03	0.048887
460.24	0.052299
460.44	0.046195
460.64	0.04237
460.85	0.049927
461.05	0.049157
461.25	0.050444
461.46	0.047557
461.66	0.044242
461.86	0.049623
462.07	0.052506
462.27	0.050115
462.47	0.05477
462.67	0.04887
462.88	0.052082
463.08	0.04355
463.28	0.049699
463.49	0.054107
463.69	0.050497
463.89	0.052126
464.09	0.052759
464.3	0.048487
464.5	0.054837
464.7	0.05545
464.91	0.043871
465.11	0.04479
465.31	0.045736
465.51	0.051536
465.72	0.048623
465.92	0.048776
466.12	0.04436
466.33	0.050749
466.53	0.048664
466.73	0.045676
466.93	0.051217
